# Mon Jun  2 16:33:30 2025
#
# Cooling Map File
#
# Loop values:
# hden -1.5
#
# Data Columns:
# log10 Te [K]
# log10 Emissivities / n_H^2 [erg s^-1 cm^3]
#
#Te   H__1_1216  H__1_6563  C__4_1548  C__4_1551  O__6_1032  O__6_1038  C__3_977  C__3_1907  C__3_1910  C__2_1335  Si_2_1814  Si_2_1260  Si_3_1207  Si_3_1883  Si_4_1394  Si_4_1403  Mg_2_2796  Mg_2_2803
3.000  -22.2493  -24.2518  -28.5299  -28.8240  -9999.  -9999.  -29.9619  -31.2353  -31.2294  -27.7508  -31.6027  -25.0922  -27.2586  -36.2458  -27.3236  -27.6153  -24.2599  -24.5530
3.100  -22.2335  -24.2658  -28.5912  -28.8853  -9999.  -9999.  -29.8085  -31.2609  -31.2556  -27.5736  -31.6014  -25.0910  -27.1512  -36.1384  -27.3211  -27.6129  -24.2601  -24.5535
3.200  -22.2193  -24.2817  -28.6264  -28.9205  -9999.  -9999.  -29.7040  -31.2720  -31.2671  -27.4171  -31.6010  -25.0903  -27.0460  -36.0332  -27.3241  -27.6158  -24.2613  -24.5549
3.300  -22.2069  -24.2997  -28.6335  -28.9277  -9999.  -9999.  -29.6294  -31.2658  -31.2615  -27.2955  -31.6014  -25.0900  -26.9446  -35.9318  -27.3283  -27.6200  -24.2635  -24.5574
3.400  -22.1965  -24.3199  -28.6155  -28.9096  -9999.  -9999.  -29.5739  -31.2430  -31.2395  -27.2065  -31.6026  -25.0900  -26.8476  -35.7904  -27.3341  -27.6258  -24.2670  -24.5611
3.500  -22.1882  -24.3424  -28.5764  -28.8706  -9999.  -9999.  -29.5308  -31.2054  -31.2031  -27.1441  -31.5969  -25.0903  -26.7545  -34.0393  -27.3433  -27.6351  -24.2720  -24.5662
3.600  -22.1822  -24.3676  -28.5204  -28.8146  -9999.  -9999.  -29.4960  -31.0356  -31.0706  -27.1035  -31.0181  -25.0910  -26.6647  -31.8651  -27.3547  -27.6464  -24.2790  -24.5734
3.700  -25.3756  -26.6594  -27.6648  -27.9332  -9999.  -9999.  -29.6453  -31.2589  -31.2988  -28.4076  -30.4208  -27.6181  -27.8877  -30.7532  -27.5219  -27.4448  -27.0641  -27.2188
3.800  -25.3661  -26.6436  -27.6292  -27.8982  -9999.  -9999.  -29.6359  -29.8922  -30.0572  -28.3936  -29.0215  -27.8802  -27.8566  -29.3829  -27.4538  -27.3743  -26.6599  -26.8868
3.900  -25.2870  -26.6512  -27.5751  -27.8445  -9999.  -9999.  -29.6270  -28.8112  -28.9848  -28.3975  -27.8998  -27.6397  -27.8188  -28.3327  -27.3794  -27.3063  -26.0958  -26.3687
4.000  -24.5791  -26.3156  -27.5320  -27.8026  -9999.  -9999.  -29.6240  -27.9451  -28.1218  -28.4074  -26.9910  -27.8609  -27.7641  -27.5323  -27.2870  -27.2298  -25.5722  -25.8603
4.100  -23.4162  -25.1580  -27.5939  -27.8741  -9999.  -9999.  -29.6621  -27.2482  -27.4289  -28.4238  -26.0919  -27.1112  -27.5678  -26.9088  -27.1215  -27.1885  -24.9016  -25.1966
4.200  -22.3125  -23.9248  -27.6607  -27.9553  -9999.  -9999.  -29.7840  -26.5797  -26.7651  -28.3325  -24.9078  -25.7949  -26.6173  -25.9799  -26.9813  -27.2462  -23.7971  -24.0944
4.300  -22.3772  -23.8794  -27.3293  -27.6265  -9999.  -9999.  -29.9175  -25.7807  -25.9690  -27.9967  -24.3958  -25.2456  -25.0626  -24.6998  -26.7609  -27.0474  -23.8486  -24.1465
4.400  -22.5811  -23.9971  -27.0054  -27.3038  -9999.  -9999.  -30.0305  -24.9397  -25.1299  -27.5247  -24.2694  -24.8239  -24.0575  -23.9262  -26.5449  -26.8361  -24.4066  -24.7035
4.500  -22.6988  -24.0774  -26.5071  -26.8062  -9999.  -9999.  -29.8973  -24.0339  -24.2263  -26.9177  -24.3468  -24.6917  -23.4429  -23.5159  -26.2280  -26.5217  -24.9395  -25.2361
4.600  -22.8647  -24.2572  -25.9519  -26.2516  -9999.  -9999.  -29.6441  -23.4244  -23.6195  -26.5519  -24.5361  -24.7442  -23.0545  -23.3155  -25.4137  -25.7094  -25.4101  -25.7098
4.700  -23.0427  -24.5237  -25.0995  -25.3997  -9999.  -9999.  -29.0424  -23.0675  -23.2646  -26.3856  -24.7783  -24.8375  -22.7945  -23.2164  -24.4248  -24.7221  -25.8125  -26.1133
4.800  -23.2009  -24.6997  -23.9721  -24.2720  -9999.  -9999.  -28.1388  -22.8912  -23.0894  -26.3695  -25.0642  -24.9858  -22.6428  -23.1938  -23.6176  -23.9171  -26.1346  -26.4361
4.900  -23.3475  -24.8525  -23.0257  -23.3266  -28.1241  -28.4227  -27.4327  -22.8238  -23.0233  -26.4941  -25.5451  -25.3116  -22.7200  -23.3999  -23.1457  -23.4466  -26.3536  -26.6554
5.000  -23.4894  -25.0006  -22.4268  -22.7288  -27.4019  -27.7017  -27.0495  -22.9651  -23.1659  -26.8084  -26.5801  -26.2066  -23.3929  -24.1898  -23.3469  -23.6486  -26.4950  -26.7971
5.100  -23.6314  -25.1499  -22.4572  -22.7594  -26.4283  -26.7292  -27.2756  -23.6338  -23.8358  -27.6286  -27.8555  -27.3524  -24.3222  -25.2183  -23.8618  -24.1638  -26.6815  -26.9837
5.200  -23.7724  -25.2964  -22.9250  -23.2275  -24.7468  -25.0485  -27.9240  -24.6616  -24.8650  -28.7882  -28.9999  -28.3839  -25.1500  -26.1592  -24.3263  -24.6289  -27.0124  -27.3146
5.300  -23.9079  -25.4376  -23.4226  -23.7249  -23.3869  -23.6897  -28.5912  -25.6512  -25.8562  -29.8981  -29.9659  -29.2233  -25.8062  -26.9211  -24.6602  -24.9633  -27.5119  -27.8142
5.400  -24.0412  -25.5766  -23.8648  -24.1671  -22.5054  -22.8081  -29.1939  -26.5269  -26.7336  -30.8885  -30.7694  -29.9205  -26.3290  -27.5242  -24.8928  -25.1964  -28.1989  -28.5011
5.500  -24.1876  -25.7159  -24.2479  -24.5499  -22.2776  -22.5808  -29.7306  -27.3083  -27.5168  -31.7686  -31.5880  -30.6165  -26.8637  -28.1566  -25.1685  -25.4724  -29.0455  -29.3477
5.600  -24.3594  -25.8604  -24.5705  -24.8722  -22.6101  -22.9133  -30.2013  -28.0070  -28.2175  -32.5467  -32.4937  -31.5134  -27.5419  -28.9617  -25.6215  -25.9255  -30.0713  -30.3735
5.700  -24.5277  -26.0028  -24.8195  -25.1216  -23.0429  -23.3459  -30.5940  -28.6030  -28.8146  -33.2168  -33.5760  -32.5888  -28.4106  -29.9513  -26.2808  -26.5850  -31.3040  -31.6061
5.800  -24.6914  -26.1426  -25.0042  -25.3063  -23.4380  -23.7411  -30.9187  -29.1012  -29.3121  -33.7932  -9999.  -9999.  -29.4591  -31.0876  -27.1298  -27.4340  -32.7142  -33.0164
5.900  -24.8508  -26.2798  -25.2202  -25.5232  -23.7717  -24.0746  -31.2724  -29.6252  -29.8344  -34.3759  -9999.  -9999.  -30.6713  -32.4165  -28.1590  -28.4633  -9999.  -9999.
6.000  -25.0066  -26.4152  -25.5618  -25.8646  -24.0240  -24.3264  -31.7487  -30.2550  -30.4612  -35.0604  -9999.  -9999.  -32.0651  -33.9242  -29.3890  -29.6931  -9999.  -9999.
6.100  -25.1593  -26.5492  -26.0747  -26.3772  -24.1900  -24.4919  -32.3938  -31.0253  -31.2276  -35.8946  -9999.  -9999.  -9999.  -9999.  -30.8072  -31.1111  -9999.  -9999.
6.200  -25.3094  -26.6820  -26.7268  -27.0288  -24.3305  -24.6321  -33.1757  -31.9363  -32.1318  -36.8480  -9999.  -9999.  -9999.  -9999.  -32.4717  -32.7754  -9999.  -9999.
6.300  -25.4573  -26.8142  -27.4115  -27.7135  -24.5467  -24.8496  -33.9884  -32.8634  -33.0492  -37.8172  -9999.  -9999.  -9999.  -9999.  -9999.  -9999.  -9999.  -9999.
6.400  -25.6035  -26.9459  -28.0723  -28.3742  -24.9231  -25.2258  -34.7751  -33.7328  -33.9073  -38.7500  -9999.  -9999.  -9999.  -9999.  -9999.  -9999.  -9999.  -9999.
6.500  -25.7484  -27.0775  -28.6969  -28.9988  -25.4690  -25.7718  -35.5235  -34.5736  -34.7309  -39.6363  -9999.  -9999.  -9999.  -9999.  -9999.  -9999.  -9999.  -9999.
6.600  -25.8924  -27.2093  -29.2866  -29.5891  -26.0966  -26.3995  -36.2355  -9999.  -9999.  -9999.  -9999.  -9999.  -9999.  -9999.  -9999.  -9999.  -9999.  -9999.
6.700  -26.0359  -27.3414  -29.8460  -30.1490  -26.7264  -27.0295  -36.9156  -9999.  -9999.  -9999.  -9999.  -9999.  -9999.  -9999.  -9999.  -9999.  -9999.  -9999.
6.800  -26.1791  -27.4742  -30.3793  -30.6827  -27.3291  -27.6323  -37.5682  -9999.  -9999.  -9999.  -9999.  -9999.  -9999.  -9999.  -9999.  -9999.  -9999.  -9999.
6.900  -26.3223  -27.6076  -30.8899  -31.1937  -27.8992  -28.2022  -38.1973  -9999.  -9999.  -9999.  -9999.  -9999.  -9999.  -9999.  -9999.  -9999.  -9999.  -9999.
7.000  -26.4656  -27.7418  -31.3816  -31.6853  -28.4380  -28.7409  -38.8062  -9999.  -9999.  -9999.  -9999.  -9999.  -9999.  -9999.  -9999.  -9999.  -9999.  -9999.
7.100  -26.6091  -27.8769  -31.8568  -32.1604  -28.9484  -29.2513  -39.3979  -9999.  -9999.  -9999.  -9999.  -9999.  -9999.  -9999.  -9999.  -9999.  -9999.  -9999.
7.200  -26.7531  -28.0129  -32.3181  -32.6216  -29.4339  -29.7369  -39.9750  -9999.  -9999.  -9999.  -9999.  -9999.  -9999.  -9999.  -9999.  -9999.  -9999.  -9999.
7.300  -26.8976  -28.1499  -32.7680  -33.0714  -29.8968  -30.1997  -40.5402  -9999.  -9999.  -9999.  -9999.  -9999.  -9999.  -9999.  -9999.  -9999.  -9999.  -9999.
7.400  -27.0425  -28.2878  -9999.  -9999.  -30.3400  -30.6429  -9999.  -9999.  -9999.  -9999.  -9999.  -9999.  -9999.  -9999.  -9999.  -9999.  -9999.  -9999.
7.500  -27.1881  -28.4267  -9999.  -9999.  -30.7661  -31.0690  -9999.  -9999.  -9999.  -9999.  -9999.  -9999.  -9999.  -9999.  -9999.  -9999.  -9999.  -9999.
7.600  -27.3341  -28.5665  -9999.  -9999.  -31.1776  -31.4805  -9999.  -9999.  -9999.  -9999.  -9999.  -9999.  -9999.  -9999.  -9999.  -9999.  -9999.  -9999.
7.700  -27.4807  -28.7072  -9999.  -9999.  -31.5766  -31.8794  -9999.  -9999.  -9999.  -9999.  -9999.  -9999.  -9999.  -9999.  -9999.  -9999.  -9999.  -9999.
7.800  -27.6279  -28.8488  -9999.  -9999.  -31.9653  -32.2681  -9999.  -9999.  -9999.  -9999.  -9999.  -9999.  -9999.  -9999.  -9999.  -9999.  -9999.  -9999.
7.900  -27.7755  -28.9912  -9999.  -9999.  -32.3457  -32.6485  -9999.  -9999.  -9999.  -9999.  -9999.  -9999.  -9999.  -9999.  -9999.  -9999.  -9999.  -9999.
8.000  -27.9236  -29.1344  -9999.  -9999.  -32.7197  -33.0225  -9999.  -9999.  -9999.  -9999.  -9999.  -9999.  -9999.  -9999.  -9999.  -9999.  -9999.  -9999.
