# Tue Mar 11 10:29:29 2025
#
# Cooling Map File
#
# Loop values:
# hden -4
#
# Data Columns:
# log10 Te [K]
# log10 Emissivities / n_H^2 [erg s^-1 cm^3]
#
#Te   H__1_1216  H__1_6563  C__4_1548  C__4_1551  O__6_1032  O__6_1038  C__3_977  C__3_1907  C__3_1910  C__2_1335  Si_2_1814  Si_3_1207  Si_3_1883  Si_4_1394  Si_4_1403  Mg_2_2796  Mg_2_2803
3.000  -20.9402  -23.3795  -22.9724  -23.2634  -26.0172  -26.3048  -26.5146  -27.3956  -27.3784  -26.0226  -29.7516  -23.2718  -32.2445  -23.0349  -23.3210  -23.0824  -23.3780
3.100  -20.9439  -23.4423  -23.0039  -23.2954  -25.8766  -26.1642  -26.3542  -27.3947  -27.3770  -25.8402  -29.8497  -23.2404  -32.2137  -23.0416  -23.3284  -23.1952  -23.4913
3.200  -20.9520  -23.5082  -23.0154  -23.3072  -25.7381  -26.0257  -26.2480  -27.3941  -27.3758  -25.6927  -29.9573  -23.2205  -32.1947  -23.0553  -23.3429  -23.3175  -23.6138
3.300  -20.9649  -23.5769  -23.0053  -23.2973  -25.6020  -25.8896  -26.1773  -27.3934  -27.3745  -25.5968  -30.0747  -23.2141  -32.1895  -23.0747  -23.3629  -23.4494  -23.7460
3.400  -20.9828  -23.6477  -22.9766  -23.2687  -25.4699  -25.7576  -26.1316  -27.3931  -27.3736  -25.5498  -30.1999  -23.2200  -32.1965  -23.1002  -23.3889  -23.5908  -23.8875
3.500  -21.0061  -23.7206  -22.9339  -23.2261  -25.3458  -25.6334  -26.1046  -27.3943  -27.3742  -25.5440  -30.3306  -23.2357  -32.1008  -23.1327  -23.4219  -23.7406  -24.0373
3.600  -21.0350  -23.7951  -22.8816  -23.1738  -25.2353  -25.5229  -26.0924  -27.3977  -27.3771  -25.5713  -30.4593  -23.2607  -30.6809  -23.1720  -23.4617  -23.8974  -24.1944
3.700  -22.2540  -23.9883  -22.8728  -23.1397  -25.1480  -25.4343  -26.0913  -27.3741  -27.3628  -25.6249  -30.3125  -23.3675  -29.1010  -23.2560  -23.5256  -24.0612  -24.3574
3.800  -22.1896  -24.0291  -22.8128  -23.0790  -25.0833  -25.3696  -26.1002  -27.0020  -27.0760  -25.6994  -29.3634  -23.4056  -27.8728  -23.2957  -23.5698  -24.2295  -24.5260
3.900  -22.1208  -24.0792  -22.7526  -23.0180  -25.0410  -25.3273  -26.1170  -26.1904  -26.3254  -25.7902  -28.4212  -23.4620  -26.9522  -23.3403  -23.6183  -24.4040  -24.7008
4.000  -22.0485  -24.1382  -22.6966  -22.9615  -25.0092  -25.2955  -26.1443  -25.4382  -25.5836  -25.8927  -27.6759  -23.5301  -26.2609  -23.3941  -23.6751  -24.5844  -24.8814
4.100  -21.9735  -24.2034  -22.6557  -22.9217  -24.9738  -25.2601  -26.1938  -24.8331  -24.9814  -25.9972  -27.0559  -23.5836  -25.7162  -23.4684  -23.7522  -24.7703  -25.0673
4.200  -21.8956  -24.2716  -22.6472  -22.9169  -24.9277  -25.2139  -26.2871  -24.3452  -24.4956  -26.0852  -26.4833  -23.5905  -25.2719  -23.5815  -23.8679  -24.9614  -25.2584
4.300  -21.8238  -24.3323  -22.6773  -22.9534  -24.8682  -25.1540  -26.4343  -23.9459  -24.0973  -26.1485  -25.9400  -23.5706  -24.9143  -23.7375  -24.0260  -25.1665  -25.4636
4.400  -21.7801  -24.3698  -22.7275  -23.0103  -24.7870  -25.0728  -26.6164  -23.6347  -23.7859  -26.2057  -25.5655  -23.5597  -24.6556  -23.9135  -24.2036  -25.4295  -25.7267
4.500  -21.8056  -24.3934  -22.7712  -23.0589  -24.6869  -24.9742  -26.8032  -23.4054  -23.5568  -26.2749  -25.5104  -23.5517  -24.4966  -24.0892  -24.3806  -25.8273  -26.1246
4.600  -21.9521  -24.4528  -22.7890  -23.0801  -24.5995  -24.8893  -26.9700  -23.2414  -23.3935  -26.3545  -25.7140  -23.5552  -24.4367  -24.2359  -24.5284  -26.3441  -26.6415
4.700  -22.2075  -24.5642  -22.7664  -23.0596  -24.5479  -24.8405  -27.0958  -23.1248  -23.2768  -26.4285  -26.0369  -23.5815  -24.4555  -24.3132  -24.6071  -26.8581  -27.1556
4.800  -22.4986  -24.7042  -22.6943  -22.9886  -24.5157  -24.8112  -27.1804  -23.0559  -23.2065  -26.5195  -26.4267  -23.6542  -24.5481  -24.2627  -24.5578  -27.2409  -27.5387
4.900  -22.7762  -24.8537  -22.5448  -22.8397  -24.4521  -24.7497  -27.2255  -23.0738  -23.2233  -26.7292  -26.9261  -23.8260  -24.7766  -24.1140  -24.4104  -27.3828  -27.6807
5.000  -23.0234  -25.0006  -22.3725  -22.6679  -24.2867  -24.5856  -27.2378  -23.3058  -23.4542  -27.1341  -27.5922  -24.1790  -25.1989  -24.0651  -24.3624  -27.2755  -27.5736
5.100  -23.2418  -25.1451  -22.4517  -22.7485  -24.0074  -24.3075  -27.4950  -23.9100  -24.0573  -27.8895  -28.4793  -24.7532  -25.8396  -24.2452  -24.5433  -27.0768  -27.3749
5.200  -23.4378  -25.2889  -22.8256  -23.1241  -23.6073  -23.9082  -28.0397  -24.8065  -24.9524  -28.9174  -29.4248  -25.4050  -26.5817  -24.5390  -24.8377  -27.0233  -27.3215
5.300  -23.6159  -25.4306  -23.2860  -23.5851  -23.0257  -23.3278  -28.6629  -25.7443  -25.8891  -29.9747  -30.2859  -25.9718  -27.2388  -24.7841  -25.0832  -27.2637  -27.5620
5.400  -23.7806  -25.5703  -23.7217  -24.0209  -22.4472  -22.7490  -29.2551  -26.6077  -26.7515  -30.9518  -31.0153  -26.4310  -27.7679  -24.9523  -25.2517  -27.8005  -28.0988
5.500  -23.9445  -25.7114  -24.1078  -24.4068  -22.3063  -22.6084  -29.7934  -27.3908  -27.5336  -31.8324  -31.7616  -26.9010  -28.3280  -25.1612  -25.4610  -28.5701  -28.8684
5.600  -24.1157  -25.8562  -24.4373  -24.7362  -22.6264  -22.9287  -30.2717  -28.0980  -28.2396  -32.6175  -32.6048  -27.5234  -29.0707  -25.5532  -25.8531  -29.5536  -29.8519
5.700  -24.2791  -25.9981  -24.6930  -24.9921  -23.0479  -23.3502  -30.6735  -28.7045  -28.8442  -33.2964  -33.6452  -28.3541  -30.0186  -26.1707  -26.4706  -30.7557  -31.0540
5.800  -24.4356  -26.1375  -24.8744  -25.1735  -23.4396  -23.7420  -30.9986  -29.2046  -29.3411  -33.8731  -9999.  -29.3788  -31.1299  -26.9941  -27.2941  -32.1438  -32.4421
5.900  -24.5857  -26.2746  -25.0677  -25.3672  -23.7735  -24.0757  -31.3343  -29.7123  -29.8444  -34.4376  -9999.  -30.5776  -32.4443  -28.0081  -28.3081  -9999.  -9999.
6.000  -24.7301  -26.4099  -25.3814  -25.6808  -24.0272  -24.3289  -31.7888  -30.3216  -30.4485  -35.0999  -9999.  -31.9619  -33.9429  -29.2239  -29.5237  -9999.  -9999.
6.100  -24.8694  -26.5437  -25.8705  -26.1696  -24.1932  -24.4944  -32.4172  -31.0761  -31.1975  -35.9169  -9999.  -9999.  -9999.  -30.6320  -30.9316  -9999.  -9999.
6.200  -25.0042  -26.6764  -26.5031  -26.8018  -24.3303  -24.6311  -33.1878  -31.9777  -32.0909  -36.8593  -9999.  -9999.  -9999.  -32.2924  -32.5918  -9999.  -9999.
6.300  -25.1349  -26.8082  -27.1728  -27.4714  -24.5408  -24.8428  -33.9948  -32.9013  -33.0040  -37.8236  -9999.  -9999.  -9999.  -9999.  -9999.  -9999.  -9999.
6.400  -25.2621  -26.9396  -27.8203  -28.1187  -24.9107  -25.2126  -34.7787  -33.7692  -33.8600  -38.7538  -9999.  -9999.  -9999.  -9999.  -9999.  -9999.  -9999.
6.500  -25.3863  -27.0708  -28.4319  -28.7302  -25.4502  -25.7520  -35.5258  -34.6101  -34.6836  -39.6389  -9999.  -9999.  -9999.  -9999.  -9999.  -9999.  -9999.
6.600  -25.5081  -27.2021  -29.0080  -29.3065  -26.0724  -26.3744  -36.2372  -9999.  -9999.  -9999.  -9999.  -9999.  -9999.  -9999.  -9999.  -9999.  -9999.
6.700  -25.6277  -27.3338  -29.5529  -29.8515  -26.6985  -27.0005  -36.9170  -9999.  -9999.  -9999.  -9999.  -9999.  -9999.  -9999.  -9999.  -9999.  -9999.
6.800  -25.7456  -27.4659  -30.0706  -30.3693  -27.2982  -27.6003  -37.5694  -9999.  -9999.  -9999.  -9999.  -9999.  -9999.  -9999.  -9999.  -9999.  -9999.
6.900  -25.8621  -27.5987  -30.5648  -30.8634  -27.8655  -28.1673  -38.1984  -9999.  -9999.  -9999.  -9999.  -9999.  -9999.  -9999.  -9999.  -9999.  -9999.
7.000  -25.9775  -27.7322  -31.0387  -31.3372  -28.4015  -28.7031  -38.8072  -9999.  -9999.  -9999.  -9999.  -9999.  -9999.  -9999.  -9999.  -9999.  -9999.
7.100  -26.0919  -27.8666  -31.4953  -31.7935  -28.9090  -29.2105  -39.3988  -9999.  -9999.  -9999.  -9999.  -9999.  -9999.  -9999.  -9999.  -9999.  -9999.
7.200  -26.2056  -28.0017  -31.9369  -32.2349  -29.3912  -29.6927  -39.9759  -9999.  -9999.  -9999.  -9999.  -9999.  -9999.  -9999.  -9999.  -9999.  -9999.
7.300  -26.3188  -28.1377  -32.3661  -32.6639  -29.8507  -30.1520  -40.5410  -9999.  -9999.  -9999.  -9999.  -9999.  -9999.  -9999.  -9999.  -9999.  -9999.
7.400  -26.4316  -28.2746  -9999.  -9999.  -30.2901  -30.5913  -9999.  -9999.  -9999.  -9999.  -9999.  -9999.  -9999.  -9999.  -9999.  -9999.  -9999.
7.500  -26.5440  -28.4123  -9999.  -9999.  -30.7121  -31.0132  -9999.  -9999.  -9999.  -9999.  -9999.  -9999.  -9999.  -9999.  -9999.  -9999.  -9999.
7.600  -26.6562  -28.5509  -9999.  -9999.  -31.1191  -31.4200  -9999.  -9999.  -9999.  -9999.  -9999.  -9999.  -9999.  -9999.  -9999.  -9999.  -9999.
7.700  -26.7682  -28.6902  -9999.  -9999.  -31.5133  -31.8140  -9999.  -9999.  -9999.  -9999.  -9999.  -9999.  -9999.  -9999.  -9999.  -9999.  -9999.
7.800  -26.8802  -28.8303  -9999.  -9999.  -31.8967  -32.1973  -9999.  -9999.  -9999.  -9999.  -9999.  -9999.  -9999.  -9999.  -9999.  -9999.  -9999.
7.900  -26.9921  -28.9710  -9999.  -9999.  -32.2715  -32.5718  -9999.  -9999.  -9999.  -9999.  -9999.  -9999.  -9999.  -9999.  -9999.  -9999.  -9999.
8.000  -27.1039  -29.1124  -9999.  -9999.  -32.6392  -32.9393  -9999.  -9999.  -9999.  -9999.  -9999.  -9999.  -9999.  -9999.  -9999.  -9999.  -9999.
